|6.6.6
water_3.tab                                                                                         
           1
T(K)    
   0.0000000000000000     
   0.0000000000000000     
          16
           3
T(K)           P(bar)         rho,kg/m3     
  923.150        10000.0        960.716     
  923.150        10010.0        960.966     
  923.150        10020.0        961.217     
  923.150        10030.0        961.467     
  923.150        10040.0        961.717     
  923.150        10050.0        961.967     
  923.150        10060.0        962.216     
  923.150        10070.0        962.466     
  923.150        10080.0        962.715     
  923.150        10090.0        962.963     
  923.150        10100.1        963.212     
  923.150        10110.1        963.460     
  923.150        10120.1        963.708     
  923.150        10130.1        963.956     
  923.150        10140.1        964.204     
  923.150        10150.1        964.451     
  923.150        10160.1        964.698     
  923.150        10170.1        964.945     
  923.150        10180.1        965.192     
  923.150        10190.1        965.438     
  923.150        10200.1        965.684     
  923.150        10210.1        965.930     
  923.150        10220.1        966.176     
  923.150        10230.1        966.421     
  923.150        10240.1        966.667     
  923.150        10250.1        966.912     
  923.150        10260.1        967.156     
  923.150        10270.1        967.401     
  923.150        10280.1        967.645     
  923.150        10290.1        967.889     
  923.150        10300.2        968.133     
  923.150        10310.2        968.377     
  923.150        10320.2        968.620     
  923.150        10330.2        968.863     
  923.150        10340.2        969.106     
  923.150        10350.2        969.349     
  923.150        10360.2        969.591     
  923.150        10370.2        969.834     
  923.150        10380.2        970.076     
  923.150        10390.2        970.317     
  923.150        10400.2        970.559     
  923.150        10410.2        970.800     
  923.150        10420.2        971.041     
  923.150        10430.2        971.282     
  923.150        10440.2        971.523     
  923.150        10450.2        971.763     
  923.150        10460.2        972.004     
  923.150        10470.2        972.244     
  923.150        10480.2        972.483     
  923.150        10490.2        972.723     
  923.150        10500.3        972.962     
  923.150        10510.3        973.201     
  923.150        10520.3        973.440     
  923.150        10530.3        973.679     
  923.150        10540.3        973.917     
  923.150        10550.3        974.156     
  923.150        10560.3        974.394     
  923.150        10570.3        974.632     
  923.150        10580.3        974.869     
  923.150        10590.3        975.106     
  923.150        10600.3        975.344     
  923.150        10610.3        975.581     
  923.150        10620.3        975.817     
  923.150        10630.3        976.054     
  923.150        10640.3        976.290     
  923.150        10650.3        976.526     
  923.150        10660.3        976.762     
  923.150        10670.3        976.998     
  923.150        10680.3        977.233     
  923.150        10690.3        977.468     
  923.150        10700.4        977.703     
  923.150        10710.4        977.938     
  923.150        10720.4        978.173     
  923.150        10730.4        978.407     
  923.150        10740.4        978.641     
  923.150        10750.4        978.875     
  923.150        10760.4        979.109     
  923.150        10770.4        979.342     
  923.150        10780.4        979.576     
  923.150        10790.4        979.809     
  923.150        10800.4        980.042     
  923.150        10810.4        980.274     
  923.150        10820.4        980.507     
  923.150        10830.4        980.739     
  923.150        10840.4        980.971     
  923.150        10850.4        981.203     
  923.150        10860.4        981.435     
  923.150        10870.4        981.666     
  923.150        10880.4        981.897     
  923.150        10890.4        982.129     
  923.150        10900.5        982.359     
  923.150        10910.5        982.590     
  923.150        10920.5        982.820     
  923.150        10930.5        983.051     
  923.150        10940.5        983.281     
  923.150        10950.5        983.511     
  923.150        10960.5        983.740     
  923.150        10970.5        983.970     
  923.150        10980.5        984.199     
  923.150        10990.5        984.428     
  923.150        11000.5        984.657     
  923.150        11010.5        984.885     
  923.150        11020.5        985.114     
  923.150        11030.5        985.342     
  923.150        11040.5        985.570     
  923.150        11050.5        985.798     
  923.150        11060.5        986.025     
  923.150        11070.5        986.253     
  923.150        11080.5        986.480     
  923.150        11090.5        986.707     
  923.150        11100.6        986.934     
  923.150        11110.6        987.160     
  923.150        11120.6        987.387     
  923.150        11130.6        987.613     
  923.150        11140.6        987.839     
  923.150        11150.6        988.065     
  923.150        11160.6        988.291     
  923.150        11170.6        988.516     
  923.150        11180.6        988.741     
  923.150        11190.6        988.966     
  923.150        11200.6        989.191     
  923.150        11210.6        989.416     
  923.150        11220.6        989.641     
  923.150        11230.6        989.865     
  923.150        11240.6        990.089     
  923.150        11250.6        990.313     
  923.150        11260.6        990.537     
  923.150        11270.6        990.760     
  923.150        11280.6        990.983     
  923.150        11290.6        991.207     
  923.150        11300.7        991.430     
  923.150        11310.7        991.652     
  923.150        11320.7        991.875     
  923.150        11330.7        992.097     
  923.150        11340.7        992.320     
  923.150        11350.7        992.542     
  923.150        11360.7        992.763     
  923.150        11370.7        992.985     
  923.150        11380.7        993.207     
  923.150        11390.7        993.428     
  923.150        11400.7        993.649     
  923.150        11410.7        993.870     
  923.150        11420.7        994.091     
  923.150        11430.7        994.311     
  923.150        11440.7        994.531     
  923.150        11450.7        994.752     
  923.150        11460.7        994.972     
  923.150        11470.7        995.191     
  923.150        11480.7        995.411     
  923.150        11490.7        995.630     
  923.150        11500.8        995.850     
  923.150        11510.8        996.069     
  923.150        11520.8        996.288     
  923.150        11530.8        996.506     
  923.150        11540.8        996.725     
  923.150        11550.8        996.943     
  923.150        11560.8        997.161     
  923.150        11570.8        997.379     
  923.150        11580.8        997.597     
  923.150        11590.8        997.815     
  923.150        11600.8        998.032     
  923.150        11610.8        998.249     
  923.150        11620.8        998.466     
  923.150        11630.8        998.683     
  923.150        11640.8        998.900     
  923.150        11650.8        999.117     
  923.150        11660.8        999.333     
  923.150        11670.8        999.549     
  923.150        11680.8        999.765     
  923.150        11690.8        999.981     
  923.150        11700.9        1000.20     
  923.150        11710.9        1000.41     
  923.150        11720.9        1000.63     
  923.150        11730.9        1000.84     
  923.150        11740.9        1001.06     
  923.150        11750.9        1001.27     
  923.150        11760.9        1001.49     
  923.150        11770.9        1001.70     
  923.150        11780.9        1001.92     
  923.150        11790.9        1002.13     
  923.150        11800.9        1002.34     
  923.150        11810.9        1002.56     
  923.150        11820.9        1002.77     
  923.150        11830.9        1002.98     
  923.150        11840.9        1003.20     
  923.150        11850.9        1003.41     
  923.150        11860.9        1003.62     
  923.150        11870.9        1003.84     
  923.150        11880.9        1004.05     
  923.150        11890.9        1004.26     
  923.150        11901.0        1004.47     
  923.150        11911.0        1004.69     
  923.150        11921.0        1004.90     
  923.150        11931.0        1005.11     
  923.150        11941.0        1005.32     
  923.150        11951.0        1005.53     
  923.150        11961.0        1005.74     
  923.150        11971.0        1005.95     
  923.150        11981.0        1006.16     
  923.150        11991.0        1006.38     
  923.150        12001.0        1006.59     
  923.150        12011.0        1006.80     
  923.150        12021.0        1007.01     
  923.150        12031.0        1007.22     
  923.150        12041.0        1007.43     
  923.150        12051.0        1007.64     
  923.150        12061.0        1007.85     
  923.150        12071.0        1008.05     
  923.150        12081.0        1008.26     
  923.150        12091.0        1008.47     
  923.150        12101.1        1008.68     
  923.150        12111.1        1008.89     
  923.150        12121.1        1009.10     
  923.150        12131.1        1009.31     
  923.150        12141.1        1009.52     
  923.150        12151.1        1009.72     
  923.150        12161.1        1009.93     
  923.150        12171.1        1010.14     
  923.150        12181.1        1010.35     
  923.150        12191.1        1010.55     
  923.150        12201.1        1010.76     
  923.150        12211.1        1010.97     
  923.150        12221.1        1011.18     
  923.150        12231.1        1011.38     
  923.150        12241.1        1011.59     
  923.150        12251.1        1011.79     
  923.150        12261.1        1012.00     
  923.150        12271.1        1012.21     
  923.150        12281.1        1012.41     
  923.150        12291.1        1012.62     
  923.150        12301.2        1012.82     
  923.150        12311.2        1013.03     
  923.150        12321.2        1013.24     
  923.150        12331.2        1013.44     
  923.150        12341.2        1013.65     
  923.150        12351.2        1013.85     
  923.150        12361.2        1014.05     
  923.150        12371.2        1014.26     
  923.150        12381.2        1014.46     
  923.150        12391.2        1014.67     
  923.150        12401.2        1014.87     
  923.150        12411.2        1015.08     
  923.150        12421.2        1015.28     
  923.150        12431.2        1015.48     
  923.150        12441.2        1015.69     
  923.150        12451.2        1015.89     
  923.150        12461.2        1016.09     
  923.150        12471.2        1016.30     
  923.150        12481.2        1016.50     
  923.150        12491.2        1016.70     
  923.150        12501.3        1016.90     
  923.150        12511.3        1017.11     
  923.150        12521.3        1017.31     
  923.150        12531.3        1017.51     
  923.150        12541.3        1017.71     
  923.150        12551.3        1017.91     
  923.150        12561.3        1018.12     
  923.150        12571.3        1018.32     
  923.150        12581.3        1018.52     
  923.150        12591.3        1018.72     
  923.150        12601.3        1018.92     
  923.150        12611.3        1019.12     
  923.150        12621.3        1019.32     
  923.150        12631.3        1019.52     
  923.150        12641.3        1019.72     
  923.150        12651.3        1019.92     
  923.150        12661.3        1020.12     
  923.150        12671.3        1020.32     
  923.150        12681.3        1020.52     
  923.150        12691.3        1020.72     
  923.150        12701.4        1020.92     
  923.150        12711.4        1021.12     
  923.150        12721.4        1021.32     
  923.150        12731.4        1021.52     
  923.150        12741.4        1021.72     
  923.150        12751.4        1021.92     
  923.150        12761.4        1022.12     
  923.150        12771.4        1022.31     
  923.150        12781.4        1022.51     
  923.150        12791.4        1022.71     
  923.150        12801.4        1022.91     
  923.150        12811.4        1023.11     
  923.150        12821.4        1023.30     
  923.150        12831.4        1023.50     
  923.150        12841.4        1023.70     
  923.150        12851.4        1023.90     
  923.150        12861.4        1024.09     
  923.150        12871.4        1024.29     
  923.150        12881.4        1024.49     
  923.150        12891.4        1024.68     
  923.150        12901.5        1024.88     
  923.150        12911.5        1025.08     
  923.150        12921.5        1025.27     
  923.150        12931.5        1025.47     
  923.150        12941.5        1025.66     
  923.150        12951.5        1025.86     
  923.150        12961.5        1026.06     
  923.150        12971.5        1026.25     
  923.150        12981.5        1026.45     
  923.150        12991.5        1026.64     
  923.150        13001.5        1026.84     
  923.150        13011.5        1027.03     
  923.150        13021.5        1027.23     
  923.150        13031.5        1027.42     
  923.150        13041.5        1027.62     
  923.150        13051.5        1027.81     
  923.150        13061.5        1028.01     
  923.150        13071.5        1028.20     
  923.150        13081.5        1028.39     
  923.150        13091.5        1028.59     
  923.150        13101.6        1028.78     
  923.150        13111.6        1028.97     
  923.150        13121.6        1029.17     
  923.150        13131.6        1029.36     
  923.150        13141.6        1029.55     
  923.150        13151.6        1029.75     
  923.150        13161.6        1029.94     
  923.150        13171.6        1030.13     
  923.150        13181.6        1030.33     
  923.150        13191.6        1030.52     
  923.150        13201.6        1030.71     
  923.150        13211.6        1030.90     
  923.150        13221.6        1031.09     
  923.150        13231.6        1031.29     
  923.150        13241.6        1031.48     
  923.150        13251.6        1031.67     
  923.150        13261.6        1031.86     
  923.150        13271.6        1032.05     
  923.150        13281.6        1032.24     
  923.150        13291.6        1032.43     
  923.150        13301.7        1032.63     
  923.150        13311.7        1032.82     
  923.150        13321.7        1033.01     
  923.150        13331.7        1033.20     
  923.150        13341.7        1033.39     
  923.150        13351.7        1033.58     
  923.150        13361.7        1033.77     
  923.150        13371.7        1033.96     
  923.150        13381.7        1034.15     
  923.150        13391.7        1034.34     
  923.150        13401.7        1034.53     
  923.150        13411.7        1034.72     
  923.150        13421.7        1034.91     
  923.150        13431.7        1035.10     
  923.150        13441.7        1035.29     
  923.150        13451.7        1035.47     
  923.150        13461.7        1035.66     
  923.150        13471.7        1035.85     
  923.150        13481.7        1036.04     
  923.150        13491.7        1036.23     
  923.150        13501.8        1036.42     
  923.150        13511.8        1036.61     
  923.150        13521.8        1036.79     
  923.150        13531.8        1036.98     
  923.150        13541.8        1037.17     
  923.150        13551.8        1037.36     
  923.150        13561.8        1037.54     
  923.150        13571.8        1037.73     
  923.150        13581.8        1037.92     
  923.150        13591.8        1038.11     
  923.150        13601.8        1038.29     
  923.150        13611.8        1038.48     
  923.150        13621.8        1038.67     
  923.150        13631.8        1038.85     
  923.150        13641.8        1039.04     
  923.150        13651.8        1039.23     
  923.150        13661.8        1039.41     
  923.150        13671.8        1039.60     
  923.150        13681.8        1039.78     
  923.150        13691.8        1039.97     
  923.150        13701.9        1040.16     
  923.150        13711.9        1040.34     
  923.150        13721.9        1040.53     
  923.150        13731.9        1040.71     
  923.150        13741.9        1040.90     
  923.150        13751.9        1041.08     
  923.150        13761.9        1041.27     
  923.150        13771.9        1041.45     
  923.150        13781.9        1041.64     
  923.150        13791.9        1041.82     
  923.150        13801.9        1042.01     
  923.150        13811.9        1042.19     
  923.150        13821.9        1042.37     
  923.150        13831.9        1042.56     
  923.150        13841.9        1042.74     
  923.150        13851.9        1042.93     
  923.150        13861.9        1043.11     
  923.150        13871.9        1043.29     
  923.150        13881.9        1043.48     
  923.150        13891.9        1043.66     
  923.150        13902.0        1043.84     
  923.150        13912.0        1044.03     
  923.150        13922.0        1044.21     
  923.150        13932.0        1044.39     
  923.150        13942.0        1044.57     
  923.150        13952.0        1044.76     
  923.150        13962.0        1044.94     
  923.150        13972.0        1045.12     
  923.150        13982.0        1045.30     
  923.150        13992.0        1045.49     
  923.150        14002.0        1045.67     
  923.150        14012.0        1045.85     
  923.150        14022.0        1046.03     
  923.150        14032.0        1046.21     
  923.150        14042.0        1046.40     
  923.150        14052.0        1046.58     
  923.150        14062.0        1046.76     
  923.150        14072.0        1046.94     
  923.150        14082.0        1047.12     
  923.150        14092.0        1047.30     
  923.150        14102.1        1047.48     
  923.150        14112.1        1047.66     
  923.150        14122.1        1047.84     
  923.150        14132.1        1048.02     
  923.150        14142.1        1048.20     
  923.150        14152.1        1048.38     
  923.150        14162.1        1048.56     
  923.150        14172.1        1048.74     
  923.150        14182.1        1048.92     
  923.150        14192.1        1049.10     
  923.150        14202.1        1049.28     
  923.150        14212.1        1049.46     
  923.150        14222.1        1049.64     
  923.150        14232.1        1049.82     
  923.150        14242.1        1050.00     
  923.150        14252.1        1050.18     
  923.150        14262.1        1050.36     
  923.150        14272.1        1050.54     
  923.150        14282.1        1050.72     
  923.150        14292.1        1050.89     
  923.150        14302.2        1051.07     
  923.150        14312.2        1051.25     
  923.150        14322.2        1051.43     
  923.150        14332.2        1051.61     
  923.150        14342.2        1051.78     
  923.150        14352.2        1051.96     
  923.150        14362.2        1052.14     
  923.150        14372.2        1052.32     
  923.150        14382.2        1052.50     
  923.150        14392.2        1052.67     
  923.150        14402.2        1052.85     
  923.150        14412.2        1053.03     
  923.150        14422.2        1053.20     
  923.150        14432.2        1053.38     
  923.150        14442.2        1053.56     
  923.150        14452.2        1053.73     
  923.150        14462.2        1053.91     
  923.150        14472.2        1054.09     
  923.150        14482.2        1054.26     
  923.150        14492.2        1054.44     
  923.150        14502.3        1054.62     
  923.150        14512.3        1054.79     
  923.150        14522.3        1054.97     
  923.150        14532.3        1055.14     
  923.150        14542.3        1055.32     
  923.150        14552.3        1055.50     
  923.150        14562.3        1055.67     
  923.150        14572.3        1055.85     
  923.150        14582.3        1056.02     
  923.150        14592.3        1056.20     
  923.150        14602.3        1056.37     
  923.150        14612.3        1056.55     
  923.150        14622.3        1056.72     
  923.150        14632.3        1056.90     
  923.150        14642.3        1057.07     
  923.150        14652.3        1057.24     
  923.150        14662.3        1057.42     
  923.150        14672.3        1057.59     
  923.150        14682.3        1057.77     
  923.150        14692.3        1057.94     
  923.150        14702.4        1058.12     
  923.150        14712.4        1058.29     
  923.150        14722.4        1058.46     
  923.150        14732.4        1058.64     
  923.150        14742.4        1058.81     
  923.150        14752.4        1058.98     
  923.150        14762.4        1059.16     
  923.150        14772.4        1059.33     
  923.150        14782.4        1059.50     
  923.150        14792.4        1059.68     
  923.150        14802.4        1059.85     
  923.150        14812.4        1060.02     
  923.150        14822.4        1060.19     
  923.150        14832.4        1060.37     
  923.150        14842.4        1060.54     
  923.150        14852.4        1060.71     
  923.150        14862.4        1060.88     
  923.150        14872.4        1061.05     
  923.150        14882.4        1061.23     
  923.150        14892.4        1061.40     
  923.150        14902.5        1061.57     
  923.150        14912.5        1061.74     
  923.150        14922.5        1061.91     
  923.150        14932.5        1062.08     
  923.150        14942.5        1062.26     
  923.150        14952.5        1062.43     
  923.150        14962.5        1062.60     
  923.150        14972.5        1062.77     
  923.150        14982.5        1062.94     
  923.150        14992.5        1063.11     
  923.150        15002.5        1063.28     
  923.150        15012.5        1063.45     
  923.150        15022.5        1063.62     
  923.150        15032.5        1063.79     
  923.150        15042.5        1063.96     
  923.150        15052.5        1064.13     
  923.150        15062.5        1064.30     
  923.150        15072.5        1064.47     
  923.150        15082.5        1064.64     
  923.150        15092.5        1064.81     
  923.150        15102.6        1064.98     
  923.150        15112.6        1065.15     
  923.150        15122.6        1065.32     
  923.150        15132.6        1065.49     
  923.150        15142.6        1065.66     
  923.150        15152.6        1065.83     
  923.150        15162.6        1066.00     
  923.150        15172.6        1066.17     
  923.150        15182.6        1066.34     
  923.150        15192.6        1066.50     
  923.150        15202.6        1066.67     
  923.150        15212.6        1066.84     
  923.150        15222.6        1067.01     
  923.150        15232.6        1067.18     
  923.150        15242.6        1067.35     
  923.150        15252.6        1067.51     
  923.150        15262.6        1067.68     
  923.150        15272.6        1067.85     
  923.150        15282.6        1068.02     
  923.150        15292.6        1068.19     
  923.150        15302.7        1068.35     
  923.150        15312.7        1068.52     
  923.150        15322.7        1068.69     
  923.150        15332.7        1068.86     
  923.150        15342.7        1069.02     
  923.150        15352.7        1069.19     
  923.150        15362.7        1069.36     
  923.150        15372.7        1069.52     
  923.150        15382.7        1069.69     
  923.150        15392.7        1069.86     
  923.150        15402.7        1070.02     
  923.150        15412.7        1070.19     
  923.150        15422.7        1070.36     
  923.150        15432.7        1070.52     
  923.150        15442.7        1070.69     
  923.150        15452.7        1070.85     
  923.150        15462.7        1071.02     
  923.150        15472.7        1071.19     
  923.150        15482.7        1071.35     
  923.150        15492.7        1071.52     
  923.150        15502.8        1071.68     
  923.150        15512.8        1071.85     
  923.150        15522.8        1072.01     
  923.150        15532.8        1072.18     
  923.150        15542.8        1072.34     
  923.150        15552.8        1072.51     
  923.150        15562.8        1072.67     
  923.150        15572.8        1072.84     
  923.150        15582.8        1073.00     
  923.150        15592.8        1073.17     
  923.150        15602.8        1073.33     
  923.150        15612.8        1073.50     
  923.150        15622.8        1073.66     
  923.150        15632.8        1073.83     
  923.150        15642.8        1073.99     
  923.150        15652.8        1074.16     
  923.150        15662.8        1074.32     
  923.150        15672.8        1074.48     
  923.150        15682.8        1074.65     
  923.150        15692.8        1074.81     
  923.150        15702.9        1074.97     
  923.150        15712.9        1075.14     
  923.150        15722.9        1075.30     
  923.150        15732.9        1075.46     
  923.150        15742.9        1075.63     
  923.150        15752.9        1075.79     
  923.150        15762.9        1075.95     
  923.150        15772.9        1076.12     
  923.150        15782.9        1076.28     
  923.150        15792.9        1076.44     
  923.150        15802.9        1076.61     
  923.150        15812.9        1076.77     
  923.150        15822.9        1076.93     
  923.150        15832.9        1077.09     
  923.150        15842.9        1077.25     
  923.150        15852.9        1077.42     
  923.150        15862.9        1077.58     
  923.150        15872.9        1077.74     
  923.150        15882.9        1077.90     
  923.150        15892.9        1078.07     
  923.150        15903.0        1078.23     
  923.150        15913.0        1078.39     
  923.150        15923.0        1078.55     
  923.150        15933.0        1078.71     
  923.150        15943.0        1078.87     
  923.150        15953.0        1079.03     
  923.150        15963.0        1079.20     
  923.150        15973.0        1079.36     
  923.150        15983.0        1079.52     
  923.150        15993.0        1079.68     
  923.150        16003.0        1079.84     
  923.150        16013.0        1080.00     
  923.150        16023.0        1080.16     
  923.150        16033.0        1080.32     
  923.150        16043.0        1080.48     
  923.150        16053.0        1080.64     
  923.150        16063.0        1080.80     
  923.150        16073.0        1080.96     
  923.150        16083.0        1081.12     
  923.150        16093.0        1081.28     
  923.150        16103.1        1081.44     
  923.150        16113.1        1081.60     
  923.150        16123.1        1081.76     
  923.150        16133.1        1081.92     
  923.150        16143.1        1082.08     
  923.150        16153.1        1082.24     
  923.150        16163.1        1082.40     
  923.150        16173.1        1082.56     
  923.150        16183.1        1082.72     
  923.150        16193.1        1082.88     
  923.150        16203.1        1083.04     
  923.150        16213.1        1083.19     
  923.150        16223.1        1083.35     
  923.150        16233.1        1083.51     
  923.150        16243.1        1083.67     
  923.150        16253.1        1083.83     
  923.150        16263.1        1083.99     
  923.150        16273.1        1084.15     
  923.150        16283.1        1084.30     
  923.150        16293.1        1084.46     
  923.150        16303.2        1084.62     
  923.150        16313.2        1084.78     
  923.150        16323.2        1084.94     
  923.150        16333.2        1085.09     
  923.150        16343.2        1085.25     
  923.150        16353.2        1085.41     
  923.150        16363.2        1085.57     
  923.150        16373.2        1085.72     
  923.150        16383.2        1085.88     
  923.150        16393.2        1086.04     
  923.150        16403.2        1086.20     
  923.150        16413.2        1086.35     
  923.150        16423.2        1086.51     
  923.150        16433.2        1086.67     
  923.150        16443.2        1086.82     
  923.150        16453.2        1086.98     
  923.150        16463.2        1087.14     
  923.150        16473.2        1087.29     
  923.150        16483.2        1087.45     
  923.150        16493.2        1087.61     
  923.150        16503.3        1087.76     
  923.150        16513.3        1087.92     
  923.150        16523.3        1088.08     
  923.150        16533.3        1088.23     
  923.150        16543.3        1088.39     
  923.150        16553.3        1088.54     
  923.150        16563.3        1088.70     
  923.150        16573.3        1088.86     
  923.150        16583.3        1089.01     
  923.150        16593.3        1089.17     
  923.150        16603.3        1089.32     
  923.150        16613.3        1089.48     
  923.150        16623.3        1089.63     
  923.150        16633.3        1089.79     
  923.150        16643.3        1089.94     
  923.150        16653.3        1090.10     
  923.150        16663.3        1090.25     
  923.150        16673.3        1090.41     
  923.150        16683.3        1090.56     
  923.150        16693.3        1090.72     
  923.150        16703.4        1090.87     
  923.150        16713.4        1091.03     
  923.150        16723.4        1091.18     
  923.150        16733.4        1091.34     
  923.150        16743.4        1091.49     
  923.150        16753.4        1091.64     
  923.150        16763.4        1091.80     
  923.150        16773.4        1091.95     
  923.150        16783.4        1092.11     
  923.150        16793.4        1092.26     
  923.150        16803.4        1092.41     
  923.150        16813.4        1092.57     
  923.150        16823.4        1092.72     
  923.150        16833.4        1092.87     
  923.150        16843.4        1093.03     
  923.150        16853.4        1093.18     
  923.150        16863.4        1093.33     
  923.150        16873.4        1093.49     
  923.150        16883.4        1093.64     
  923.150        16893.4        1093.79     
  923.150        16903.5        1093.95     
  923.150        16913.5        1094.10     
  923.150        16923.5        1094.25     
  923.150        16933.5        1094.41     
  923.150        16943.5        1094.56     
  923.150        16953.5        1094.71     
  923.150        16963.5        1094.86     
  923.150        16973.5        1095.02     
  923.150        16983.5        1095.17     
  923.150        16993.5        1095.32     
  923.150        17003.5        1095.47     
  923.150        17013.5        1095.62     
  923.150        17023.5        1095.78     
  923.150        17033.5        1095.93     
  923.150        17043.5        1096.08     
  923.150        17053.5        1096.23     
  923.150        17063.5        1096.38     
  923.150        17073.5        1096.53     
  923.150        17083.5        1096.69     
  923.150        17093.5        1096.84     
  923.150        17103.6        1096.99     
  923.150        17113.6        1097.14     
  923.150        17123.6        1097.29     
  923.150        17133.6        1097.44     
  923.150        17143.6        1097.59     
  923.150        17153.6        1097.74     
  923.150        17163.6        1097.89     
  923.150        17173.6        1098.05     
  923.150        17183.6        1098.20     
  923.150        17193.6        1098.35     
  923.150        17203.6        1098.50     
  923.150        17213.6        1098.65     
  923.150        17223.6        1098.80     
  923.150        17233.6        1098.95     
  923.150        17243.6        1099.10     
  923.150        17253.6        1099.25     
  923.150        17263.6        1099.40     
  923.150        17273.6        1099.55     
  923.150        17283.6        1099.70     
  923.150        17293.6        1099.85     
  923.150        17303.7        1100.00     
  923.150        17313.7        1100.15     
  923.150        17323.7        1100.30     
  923.150        17333.7        1100.45     
  923.150        17343.7        1100.60     
  923.150        17353.7        1100.75     
  923.150        17363.7        1100.89     
  923.150        17373.7        1101.04     
  923.150        17383.7        1101.19     
  923.150        17393.7        1101.34     
  923.150        17403.7        1101.49     
  923.150        17413.7        1101.64     
  923.150        17423.7        1101.79     
  923.150        17433.7        1101.94     
  923.150        17443.7        1102.09     
  923.150        17453.7        1102.23     
  923.150        17463.7        1102.38     
  923.150        17473.7        1102.53     
  923.150        17483.7        1102.68     
  923.150        17493.7        1102.83     
  923.150        17503.8        1102.98     
  923.150        17513.8        1103.12     
  923.150        17523.8        1103.27     
  923.150        17533.8        1103.42     
  923.150        17543.8        1103.57     
  923.150        17553.8        1103.72     
  923.150        17563.8        1103.86     
  923.150        17573.8        1104.01     
  923.150        17583.8        1104.16     
  923.150        17593.8        1104.31     
  923.150        17603.8        1104.45     
  923.150        17613.8        1104.60     
  923.150        17623.8        1104.75     
  923.150        17633.8        1104.90     
  923.150        17643.8        1105.04     
  923.150        17653.8        1105.19     
  923.150        17663.8        1105.34     
  923.150        17673.8        1105.48     
  923.150        17683.8        1105.63     
  923.150        17693.8        1105.78     
  923.150        17703.9        1105.92     
  923.150        17713.9        1106.07     
  923.150        17723.9        1106.22     
  923.150        17733.9        1106.36     
  923.150        17743.9        1106.51     
  923.150        17753.9        1106.66     
  923.150        17763.9        1106.80     
  923.150        17773.9        1106.95     
  923.150        17783.9        1107.09     
  923.150        17793.9        1107.24     
  923.150        17803.9        1107.39     
  923.150        17813.9        1107.53     
  923.150        17823.9        1107.68     
  923.150        17833.9        1107.82     
  923.150        17843.9        1107.97     
  923.150        17853.9        1108.11     
  923.150        17863.9        1108.26     
  923.150        17873.9        1108.41     
  923.150        17883.9        1108.55     
  923.150        17893.9        1108.70     
  923.150        17904.0        1108.84     
  923.150        17914.0        1108.99     
  923.150        17924.0        1109.13     
  923.150        17934.0        1109.28     
  923.150        17944.0        1109.42     
  923.150        17954.0        1109.57     
  923.150        17964.0        1109.71     
  923.150        17974.0        1109.86     
  923.150        17984.0        1110.00     
  923.150        17994.0        1110.14     
  923.150        18004.0        1110.29     
  923.150        18014.0        1110.43     
  923.150        18024.0        1110.58     
  923.150        18034.0        1110.72     
  923.150        18044.0        1110.87     
  923.150        18054.0        1111.01     
  923.150        18064.0        1111.15     
  923.150        18074.0        1111.30     
  923.150        18084.0        1111.44     
  923.150        18094.0        1111.59     
  923.150        18104.1        1111.73     
  923.150        18114.1        1111.87     
  923.150        18124.1        1112.02     
  923.150        18134.1        1112.16     
  923.150        18144.1        1112.30     
  923.150        18154.1        1112.45     
  923.150        18164.1        1112.59     
  923.150        18174.1        1112.73     
  923.150        18184.1        1112.88     
  923.150        18194.1        1113.02     
  923.150        18204.1        1113.16     
  923.150        18214.1        1113.31     
  923.150        18224.1        1113.45     
  923.150        18234.1        1113.59     
  923.150        18244.1        1113.73     
  923.150        18254.1        1113.88     
  923.150        18264.1        1114.02     
  923.150        18274.1        1114.16     
  923.150        18284.1        1114.30     
  923.150        18294.1        1114.45     
  923.150        18304.2        1114.59     
  923.150        18314.2        1114.73     
  923.150        18324.2        1114.87     
  923.150        18334.2        1115.02     
  923.150        18344.2        1115.16     
  923.150        18354.2        1115.30     
  923.150        18364.2        1115.44     
  923.150        18374.2        1115.58     
  923.150        18384.2        1115.73     
  923.150        18394.2        1115.87     
  923.150        18404.2        1116.01     
  923.150        18414.2        1116.15     
  923.150        18424.2        1116.29     
  923.150        18434.2        1116.43     
  923.150        18444.2        1116.57     
  923.150        18454.2        1116.72     
  923.150        18464.2        1116.86     
  923.150        18474.2        1117.00     
  923.150        18484.2        1117.14     
  923.150        18494.2        1117.28     
  923.150        18504.3        1117.42     
  923.150        18514.3        1117.56     
  923.150        18524.3        1117.70     
  923.150        18534.3        1117.84     
  923.150        18544.3        1117.98     
  923.150        18554.3        1118.12     
  923.150        18564.3        1118.27     
  923.150        18574.3        1118.41     
  923.150        18584.3        1118.55     
  923.150        18594.3        1118.69     
  923.150        18604.3        1118.83     
  923.150        18614.3        1118.97     
  923.150        18624.3        1119.11     
  923.150        18634.3        1119.25     
  923.150        18644.3        1119.39     
  923.150        18654.3        1119.53     
  923.150        18664.3        1119.67     
  923.150        18674.3        1119.81     
  923.150        18684.3        1119.95     
  923.150        18694.3        1120.09     
  923.150        18704.4        1120.23     
  923.150        18714.4        1120.36     
  923.150        18724.4        1120.50     
  923.150        18734.4        1120.64     
  923.150        18744.4        1120.78     
  923.150        18754.4        1120.92     
  923.150        18764.4        1121.06     
  923.150        18774.4        1121.20     
  923.150        18784.4        1121.34     
  923.150        18794.4        1121.48     
  923.150        18804.4        1121.62     
  923.150        18814.4        1121.76     
  923.150        18824.4        1121.89     
  923.150        18834.4        1122.03     
  923.150        18844.4        1122.17     
  923.150        18854.4        1122.31     
  923.150        18864.4        1122.45     
  923.150        18874.4        1122.59     
  923.150        18884.4        1122.73     
  923.150        18894.4        1122.86     
  923.150        18904.5        1123.00     
  923.150        18914.5        1123.14     
  923.150        18924.5        1123.28     
  923.150        18934.5        1123.42     
  923.150        18944.5        1123.55     
  923.150        18954.5        1123.69     
  923.150        18964.5        1123.83     
  923.150        18974.5        1123.97     
  923.150        18984.5        1124.11     
  923.150        18994.5        1124.24     
  923.150        19004.5        1124.38     
  923.150        19014.5        1124.52     
  923.150        19024.5        1124.66     
  923.150        19034.5        1124.79     
  923.150        19044.5        1124.93     
  923.150        19054.5        1125.07     
  923.150        19064.5        1125.21     
  923.150        19074.5        1125.34     
  923.150        19084.5        1125.48     
  923.150        19094.5        1125.62     
  923.150        19104.6        1125.75     
  923.150        19114.6        1125.89     
  923.150        19124.6        1126.03     
  923.150        19134.6        1126.16     
  923.150        19144.6        1126.30     
  923.150        19154.6        1126.44     
  923.150        19164.6        1126.57     
  923.150        19174.6        1126.71     
  923.150        19184.6        1126.85     
  923.150        19194.6        1126.98     
  923.150        19204.6        1127.12     
  923.150        19214.6        1127.26     
  923.150        19224.6        1127.39     
  923.150        19234.6        1127.53     
  923.150        19244.6        1127.66     
  923.150        19254.6        1127.80     
  923.150        19264.6        1127.94     
  923.150        19274.6        1128.07     
  923.150        19284.6        1128.21     
  923.150        19294.6        1128.34     
  923.150        19304.7        1128.48     
  923.150        19314.7        1128.62     
  923.150        19324.7        1128.75     
  923.150        19334.7        1128.89     
  923.150        19344.7        1129.02     
  923.150        19354.7        1129.16     
  923.150        19364.7        1129.29     
  923.150        19374.7        1129.43     
  923.150        19384.7        1129.56     
  923.150        19394.7        1129.70     
  923.150        19404.7        1129.83     
  923.150        19414.7        1129.97     
  923.150        19424.7        1130.10     
  923.150        19434.7        1130.24     
  923.150        19444.7        1130.37     
  923.150        19454.7        1130.51     
  923.150        19464.7        1130.64     
  923.150        19474.7        1130.78     
  923.150        19484.7        1130.91     
  923.150        19494.7        1131.05     
  923.150        19504.8        1131.18     
  923.150        19514.8        1131.31     
  923.150        19524.8        1131.45     
  923.150        19534.8        1131.58     
  923.150        19544.8        1131.72     
  923.150        19554.8        1131.85     
  923.150        19564.8        1131.99     
  923.150        19574.8        1132.12     
  923.150        19584.8        1132.25     
  923.150        19594.8        1132.39     
  923.150        19604.8        1132.52     
  923.150        19614.8        1132.65     
  923.150        19624.8        1132.79     
  923.150        19634.8        1132.92     
  923.150        19644.8        1133.06     
  923.150        19654.8        1133.19     
  923.150        19664.8        1133.32     
  923.150        19674.8        1133.46     
  923.150        19684.8        1133.59     
  923.150        19694.8        1133.72     
  923.150        19704.9        1133.86     
  923.150        19714.9        1133.99     
  923.150        19724.9        1134.12     
  923.150        19734.9        1134.26     
  923.150        19744.9        1134.39     
  923.150        19754.9        1134.52     
  923.150        19764.9        1134.65     
  923.150        19774.9        1134.79     
  923.150        19784.9        1134.92     
  923.150        19794.9        1135.05     
  923.150        19804.9        1135.19     
  923.150        19814.9        1135.32     
  923.150        19824.9        1135.45     
  923.150        19834.9        1135.58     
  923.150        19844.9        1135.72     
  923.150        19854.9        1135.85     
  923.150        19864.9        1135.98     
  923.150        19874.9        1136.11     
  923.150        19884.9        1136.24     
  923.150        19894.9        1136.38     
  923.150        19905.0        1136.51     
  923.150        19915.0        1136.64     
  923.150        19925.0        1136.77     
  923.150        19935.0        1136.90     
  923.150        19945.0        1137.04     
  923.150        19955.0        1137.17     
  923.150        19965.0        1137.30     
  923.150        19975.0        1137.43     
  923.150        19985.0        1137.56     
  923.150        19995.0        1137.69     
  923.150        20005.0        1137.83     
  923.150        20015.0        1137.96     
  923.150        20025.0        1138.09     
  923.150        20035.0        1138.22     
  923.150        20045.0        1138.35     
  923.150        20055.0        1138.48     
  923.150        20065.0        1138.61     
  923.150        20075.0        1138.74     
  923.150        20085.0        1138.87     
  923.150        20095.0        1139.01     
  923.150        20105.1        1139.14     
  923.150        20115.1        1139.27     
  923.150        20125.1        1139.40     
  923.150        20135.1        1139.53     
  923.150        20145.1        1139.66     
  923.150        20155.1        1139.79     
  923.150        20165.1        1139.92     
  923.150        20175.1        1140.05     
  923.150        20185.1        1140.18     
  923.150        20195.1        1140.31     
  923.150        20205.1        1140.44     
  923.150        20215.1        1140.57     
  923.150        20225.1        1140.70     
  923.150        20235.1        1140.83     
  923.150        20245.1        1140.96     
  923.150        20255.1        1141.09     
  923.150        20265.1        1141.22     
  923.150        20275.1        1141.35     
  923.150        20285.1        1141.48     
  923.150        20295.1        1141.61     
  923.150        20305.2        1141.74     
  923.150        20315.2        1141.87     
  923.150        20325.2        1142.00     
  923.150        20335.2        1142.13     
  923.150        20345.2        1142.26     
  923.150        20355.2        1142.39     
  923.150        20365.2        1142.52     
  923.150        20375.2        1142.65     
  923.150        20385.2        1142.78     
  923.150        20395.2        1142.91     
  923.150        20405.2        1143.04     
  923.150        20415.2        1143.17     
  923.150        20425.2        1143.29     
  923.150        20435.2        1143.42     
  923.150        20445.2        1143.55     
  923.150        20455.2        1143.68     
  923.150        20465.2        1143.81     
  923.150        20475.2        1143.94     
  923.150        20485.2        1144.07     
  923.150        20495.2        1144.20     
  923.150        20505.3        1144.32     
  923.150        20515.3        1144.45     
  923.150        20525.3        1144.58     
  923.150        20535.3        1144.71     
  923.150        20545.3        1144.84     
  923.150        20555.3        1144.97     
  923.150        20565.3        1145.09     
  923.150        20575.3        1145.22     
  923.150        20585.3        1145.35     
  923.150        20595.3        1145.48     
  923.150        20605.3        1145.61     
  923.150        20615.3        1145.74     
  923.150        20625.3        1145.86     
  923.150        20635.3        1145.99     
  923.150        20645.3        1146.12     
  923.150        20655.3        1146.25     
  923.150        20665.3        1146.37     
  923.150        20675.3        1146.50     
  923.150        20685.3        1146.63     
  923.150        20695.3        1146.76     
  923.150        20705.4        1146.89     
  923.150        20715.4        1147.01     
  923.150        20725.4        1147.14     
  923.150        20735.4        1147.27     
  923.150        20745.4        1147.39     
  923.150        20755.4        1147.52     
  923.150        20765.4        1147.65     
  923.150        20775.4        1147.78     
  923.150        20785.4        1147.90     
  923.150        20795.4        1148.03     
  923.150        20805.4        1148.16     
  923.150        20815.4        1148.28     
  923.150        20825.4        1148.41     
  923.150        20835.4        1148.54     
  923.150        20845.4        1148.66     
  923.150        20855.4        1148.79     
  923.150        20865.4        1148.92     
  923.150        20875.4        1149.04     
  923.150        20885.4        1149.17     
  923.150        20895.4        1149.30     
  923.150        20905.5        1149.42     
  923.150        20915.5        1149.55     
  923.150        20925.5        1149.68     
  923.150        20935.5        1149.80     
  923.150        20945.5        1149.93     
  923.150        20955.5        1150.06     
  923.150        20965.5        1150.18     
  923.150        20975.5        1150.31     
  923.150        20985.5        1150.43     
  923.150        20995.5        1150.56     
  923.150        21005.5        1150.69     
  923.150        21015.5        1150.81     
  923.150        21025.5        1150.94     
  923.150        21035.5        1151.06     
  923.150        21045.5        1151.19     
  923.150        21055.5        1151.31     
  923.150        21065.5        1151.44     
  923.150        21075.5        1151.56     
  923.150        21085.5        1151.69     
  923.150        21095.5        1151.82     
  923.150        21105.6        1151.94     
  923.150        21115.6        1152.07     
  923.150        21125.6        1152.19     
  923.150        21135.6        1152.32     
  923.150        21145.6        1152.44     
  923.150        21155.6        1152.57     
  923.150        21165.6        1152.69     
  923.150        21175.6        1152.82     
  923.150        21185.6        1152.94     
  923.150        21195.6        1153.07     
  923.150        21205.6        1153.19     
  923.150        21215.6        1153.32     
  923.150        21225.6        1153.44     
  923.150        21235.6        1153.57     
  923.150        21245.6        1153.69     
  923.150        21255.6        1153.82     
  923.150        21265.6        1153.94     
  923.150        21275.6        1154.06     
  923.150        21285.6        1154.19     
  923.150        21295.6        1154.31     
  923.150        21305.7        1154.44     
  923.150        21315.7        1154.56     
  923.150        21325.7        1154.69     
  923.150        21335.7        1154.81     
  923.150        21345.7        1154.93     
  923.150        21355.7        1155.06     
  923.150        21365.7        1155.18     
  923.150        21375.7        1155.31     
  923.150        21385.7        1155.43     
  923.150        21395.7        1155.55     
  923.150        21405.7        1155.68     
  923.150        21415.7        1155.80     
  923.150        21425.7        1155.93     
  923.150        21435.7        1156.05     
  923.150        21445.7        1156.17     
  923.150        21455.7        1156.30     
  923.150        21465.7        1156.42     
  923.150        21475.7        1156.54     
  923.150        21485.7        1156.67     
  923.150        21495.7        1156.79     
  923.150        21505.8        1156.91     
  923.150        21515.8        1157.04     
  923.150        21525.8        1157.16     
  923.150        21535.8        1157.28     
  923.150        21545.8        1157.41     
  923.150        21555.8        1157.53     
  923.150        21565.8        1157.65     
  923.150        21575.8        1157.78     
  923.150        21585.8        1157.90     
  923.150        21595.8        1158.02     
  923.150        21605.8        1158.14     
  923.150        21615.8        1158.27     
  923.150        21625.8        1158.39     
  923.150        21635.8        1158.51     
  923.150        21645.8        1158.64     
  923.150        21655.8        1158.76     
  923.150        21665.8        1158.88     
  923.150        21675.8        1159.00     
  923.150        21685.8        1159.13     
  923.150        21695.8        1159.25     
  923.150        21705.9        1159.37     
  923.150        21715.9        1159.49     
  923.150        21725.9        1159.61     
  923.150        21735.9        1159.74     
  923.150        21745.9        1159.86     
  923.150        21755.9        1159.98     
  923.150        21765.9        1160.10     
  923.150        21775.9        1160.22     
  923.150        21785.9        1160.35     
  923.150        21795.9        1160.47     
  923.150        21805.9        1160.59     
  923.150        21815.9        1160.71     
  923.150        21825.9        1160.83     
  923.150        21835.9        1160.96     
  923.150        21845.9        1161.08     
  923.150        21855.9        1161.20     
  923.150        21865.9        1161.32     
  923.150        21875.9        1161.44     
  923.150        21885.9        1161.56     
  923.150        21895.9        1161.68     
  923.150        21906.0        1161.81     
  923.150        21916.0        1161.93     
  923.150        21926.0        1162.05     
  923.150        21936.0        1162.17     
  923.150        21946.0        1162.29     
  923.150        21956.0        1162.41     
  923.150        21966.0        1162.53     
  923.150        21976.0        1162.65     
  923.150        21986.0        1162.78     
  923.150        21996.0        1162.90     
  923.150        22006.0        1163.02     
  923.150        22016.0        1163.14     
  923.150        22026.0        1163.26     
  923.150        22036.0        1163.38     
  923.150        22046.0        1163.50     
  923.150        22056.0        1163.62     
  923.150        22066.0        1163.74     
  923.150        22076.0        1163.86     
  923.150        22086.0        1163.98     
  923.150        22096.0        1164.10     
  923.150        22106.1        1164.22     
  923.150        22116.1        1164.34     
  923.150        22126.1        1164.46     
  923.150        22136.1        1164.58     
  923.150        22146.1        1164.70     
  923.150        22156.1        1164.82     
  923.150        22166.1        1164.94     
  923.150        22176.1        1165.06     
  923.150        22186.1        1165.18     
  923.150        22196.1        1165.30     
  923.150        22206.1        1165.42     
  923.150        22216.1        1165.54     
  923.150        22226.1        1165.66     
  923.150        22236.1        1165.78     
  923.150        22246.1        1165.90     
  923.150        22256.1        1166.02     
  923.150        22266.1        1166.14     
  923.150        22276.1        1166.26     
  923.150        22286.1        1166.38     
  923.150        22296.1        1166.50     
  923.150        22306.2        1166.62     
  923.150        22316.2        1166.74     
  923.150        22326.2        1166.86     
  923.150        22336.2        1166.98     
  923.150        22346.2        1167.10     
  923.150        22356.2        1167.22     
  923.150        22366.2        1167.34     
  923.150        22376.2        1167.46     
  923.150        22386.2        1167.57     
  923.150        22396.2        1167.69     
  923.150        22406.2        1167.81     
  923.150        22416.2        1167.93     
  923.150        22426.2        1168.05     
  923.150        22436.2        1168.17     
  923.150        22446.2        1168.29     
  923.150        22456.2        1168.41     
  923.150        22466.2        1168.53     
  923.150        22476.2        1168.64     
  923.150        22486.2        1168.76     
  923.150        22496.2        1168.88     
  923.150        22506.3        1169.00     
  923.150        22516.3        1169.12     
  923.150        22526.3        1169.24     
  923.150        22536.3        1169.36     
  923.150        22546.3        1169.47     
  923.150        22556.3        1169.59     
  923.150        22566.3        1169.71     
  923.150        22576.3        1169.83     
  923.150        22586.3        1169.95     
  923.150        22596.3        1170.06     
  923.150        22606.3        1170.18     
  923.150        22616.3        1170.30     
  923.150        22626.3        1170.42     
  923.150        22636.3        1170.54     
  923.150        22646.3        1170.65     
  923.150        22656.3        1170.77     
  923.150        22666.3        1170.89     
  923.150        22676.3        1171.01     
  923.150        22686.3        1171.13     
  923.150        22696.3        1171.24     
  923.150        22706.4        1171.36     
  923.150        22716.4        1171.48     
  923.150        22726.4        1171.60     
  923.150        22736.4        1171.71     
  923.150        22746.4        1171.83     
  923.150        22756.4        1171.95     
  923.150        22766.4        1172.07     
  923.150        22776.4        1172.18     
  923.150        22786.4        1172.30     
  923.150        22796.4        1172.42     
  923.150        22806.4        1172.53     
  923.150        22816.4        1172.65     
  923.150        22826.4        1172.77     
  923.150        22836.4        1172.89     
  923.150        22846.4        1173.00     
  923.150        22856.4        1173.12     
  923.150        22866.4        1173.24     
  923.150        22876.4        1173.35     
  923.150        22886.4        1173.47     
  923.150        22896.4        1173.59     
  923.150        22906.5        1173.70     
  923.150        22916.5        1173.82     
  923.150        22926.5        1173.94     
  923.150        22936.5        1174.05     
  923.150        22946.5        1174.17     
  923.150        22956.5        1174.29     
  923.150        22966.5        1174.40     
  923.150        22976.5        1174.52     
  923.150        22986.5        1174.64     
  923.150        22996.5        1174.75     
  923.150        23006.5        1174.87     
  923.150        23016.5        1174.98     
  923.150        23026.5        1175.10     
  923.150        23036.5        1175.22     
  923.150        23046.5        1175.33     
  923.150        23056.5        1175.45     
  923.150        23066.5        1175.57     
  923.150        23076.5        1175.68     
  923.150        23086.5        1175.80     
  923.150        23096.5        1175.91     
  923.150        23106.6        1176.03     
  923.150        23116.6        1176.14     
  923.150        23126.6        1176.26     
  923.150        23136.6        1176.38     
  923.150        23146.6        1176.49     
  923.150        23156.6        1176.61     
  923.150        23166.6        1176.72     
  923.150        23176.6        1176.84     
  923.150        23186.6        1176.95     
  923.150        23196.6        1177.07     
  923.150        23206.6        1177.19     
  923.150        23216.6        1177.30     
  923.150        23226.6        1177.42     
  923.150        23236.6        1177.53     
  923.150        23246.6        1177.65     
  923.150        23256.6        1177.76     
  923.150        23266.6        1177.88     
  923.150        23276.6        1177.99     
  923.150        23286.6        1178.11     
  923.150        23296.6        1178.22     
  923.150        23306.7        1178.34     
  923.150        23316.7        1178.45     
  923.150        23326.7        1178.57     
  923.150        23336.7        1178.68     
  923.150        23346.7        1178.80     
  923.150        23356.7        1178.91     
  923.150        23366.7        1179.03     
  923.150        23376.7        1179.14     
  923.150        23386.7        1179.26     
  923.150        23396.7        1179.37     
  923.150        23406.7        1179.48     
  923.150        23416.7        1179.60     
  923.150        23426.7        1179.71     
  923.150        23436.7        1179.83     
  923.150        23446.7        1179.94     
  923.150        23456.7        1180.06     
  923.150        23466.7        1180.17     
  923.150        23476.7        1180.29     
  923.150        23486.7        1180.40     
  923.150        23496.7        1180.51     
  923.150        23506.8        1180.63     
  923.150        23516.8        1180.74     
  923.150        23526.8        1180.86     
  923.150        23536.8        1180.97     
  923.150        23546.8        1181.08     
  923.150        23556.8        1181.20     
  923.150        23566.8        1181.31     
  923.150        23576.8        1181.43     
  923.150        23586.8        1181.54     
  923.150        23596.8        1181.65     
  923.150        23606.8        1181.77     
  923.150        23616.8        1181.88     
  923.150        23626.8        1181.99     
  923.150        23636.8        1182.11     
  923.150        23646.8        1182.22     
  923.150        23656.8        1182.33     
  923.150        23666.8        1182.45     
  923.150        23676.8        1182.56     
  923.150        23686.8        1182.68     
  923.150        23696.8        1182.79     
  923.150        23706.9        1182.90     
  923.150        23716.9        1183.02     
  923.150        23726.9        1183.13     
  923.150        23736.9        1183.24     
  923.150        23746.9        1183.35     
  923.150        23756.9        1183.47     
  923.150        23766.9        1183.58     
  923.150        23776.9        1183.69     
  923.150        23786.9        1183.81     
  923.150        23796.9        1183.92     
  923.150        23806.9        1184.03     
  923.150        23816.9        1184.15     
  923.150        23826.9        1184.26     
  923.150        23836.9        1184.37     
  923.150        23846.9        1184.48     
  923.150        23856.9        1184.60     
  923.150        23866.9        1184.71     
  923.150        23876.9        1184.82     
  923.150        23886.9        1184.93     
  923.150        23896.9        1185.05     
  923.150        23907.0        1185.16     
  923.150        23917.0        1185.27     
  923.150        23927.0        1185.38     
  923.150        23937.0        1185.50     
  923.150        23947.0        1185.61     
  923.150        23957.0        1185.72     
  923.150        23967.0        1185.83     
  923.150        23977.0        1185.95     
  923.150        23987.0        1186.06     
  923.150        23997.0        1186.17     
  923.150        24007.0        1186.28     
  923.150        24017.0        1186.39     
  923.150        24027.0        1186.51     
  923.150        24037.0        1186.62     
  923.150        24047.0        1186.73     
  923.150        24057.0        1186.84     
  923.150        24067.0        1186.95     
  923.150        24077.0        1187.07     
  923.150        24087.0        1187.18     
  923.150        24097.0        1187.29     
  923.150        24107.1        1187.40     
  923.150        24117.1        1187.51     
  923.150        24127.1        1187.62     
  923.150        24137.1        1187.74     
  923.150        24147.1        1187.85     
  923.150        24157.1        1187.96     
  923.150        24167.1        1188.07     
  923.150        24177.1        1188.18     
  923.150        24187.1        1188.29     
  923.150        24197.1        1188.40     
  923.150        24207.1        1188.52     
  923.150        24217.1        1188.63     
  923.150        24227.1        1188.74     
  923.150        24237.1        1188.85     
  923.150        24247.1        1188.96     
  923.150        24257.1        1189.07     
  923.150        24267.1        1189.18     
  923.150        24277.1        1189.29     
  923.150        24287.1        1189.40     
  923.150        24297.1        1189.52     
  923.150        24307.2        1189.63     
  923.150        24317.2        1189.74     
  923.150        24327.2        1189.85     
  923.150        24337.2        1189.96     
  923.150        24347.2        1190.07     
  923.150        24357.2        1190.18     
  923.150        24367.2        1190.29     
  923.150        24377.2        1190.40     
  923.150        24387.2        1190.51     
  923.150        24397.2        1190.62     
  923.150        24407.2        1190.73     
  923.150        24417.2        1190.84     
  923.150        24427.2        1190.95     
  923.150        24437.2        1191.06     
  923.150        24447.2        1191.17     
  923.150        24457.2        1191.29     
  923.150        24467.2        1191.40     
  923.150        24477.2        1191.51     
  923.150        24487.2        1191.62     
  923.150        24497.2        1191.73     
  923.150        24507.3        1191.84     
  923.150        24517.3        1191.95     
  923.150        24527.3        1192.06     
  923.150        24537.3        1192.17     
  923.150        24547.3        1192.28     
  923.150        24557.3        1192.39     
  923.150        24567.3        1192.50     
  923.150        24577.3        1192.61     
  923.150        24587.3        1192.72     
  923.150        24597.3        1192.83     
  923.150        24607.3        1192.94     
  923.150        24617.3        1193.04     
  923.150        24627.3        1193.15     
  923.150        24637.3        1193.26     
  923.150        24647.3        1193.37     
  923.150        24657.3        1193.48     
  923.150        24667.3        1193.59     
  923.150        24677.3        1193.70     
  923.150        24687.3        1193.81     
  923.150        24697.3        1193.92     
  923.150        24707.4        1194.03     
  923.150        24717.4        1194.14     
  923.150        24727.4        1194.25     
  923.150        24737.4        1194.36     
  923.150        24747.4        1194.47     
  923.150        24757.4        1194.58     
  923.150        24767.4        1194.69     
  923.150        24777.4        1194.79     
  923.150        24787.4        1194.90     
  923.150        24797.4        1195.01     
  923.150        24807.4        1195.12     
  923.150        24817.4        1195.23     
  923.150        24827.4        1195.34     
  923.150        24837.4        1195.45     
  923.150        24847.4        1195.56     
  923.150        24857.4        1195.67     
  923.150        24867.4        1195.78     
  923.150        24877.4        1195.88     
  923.150        24887.4        1195.99     
  923.150        24897.4        1196.10     
  923.150        24907.5        1196.21     
  923.150        24917.5        1196.32     
  923.150        24927.5        1196.43     
  923.150        24937.5        1196.54     
  923.150        24947.5        1196.64     
  923.150        24957.5        1196.75     
  923.150        24967.5        1196.86     
  923.150        24977.5        1196.97     
  923.150        24987.5        1197.08     
  923.150        24997.5        1197.19     
  923.150        25007.5        1197.29     
  923.150        25017.5        1197.40     
  923.150        25027.5        1197.51     
  923.150        25037.5        1197.62     
  923.150        25047.5        1197.73     
  923.150        25057.5        1197.83     
  923.150        25067.5        1197.94     
  923.150        25077.5        1198.05     
  923.150        25087.5        1198.16     
  923.150        25097.5        1198.27     
  923.150        25107.6        1198.37     
  923.150        25117.6        1198.48     
  923.150        25127.6        1198.59     
  923.150        25137.6        1198.70     
  923.150        25147.6        1198.81     
  923.150        25157.6        1198.91     
  923.150        25167.6        1199.02     
  923.150        25177.6        1199.13     
  923.150        25187.6        1199.24     
  923.150        25197.6        1199.34     
  923.150        25207.6        1199.45     
  923.150        25217.6        1199.56     
  923.150        25227.6        1199.67     
  923.150        25237.6        1199.77     
  923.150        25247.6        1199.88     
  923.150        25257.6        1199.99     
  923.150        25267.6        1200.10     
  923.150        25277.6        1200.20     
  923.150        25287.6        1200.31     
  923.150        25297.6        1200.42     
  923.150        25307.7        1200.52     
  923.150        25317.7        1200.63     
  923.150        25327.7        1200.74     
  923.150        25337.7        1200.85     
  923.150        25347.7        1200.95     
  923.150        25357.7        1201.06     
  923.150        25367.7        1201.17     
  923.150        25377.7        1201.27     
  923.150        25387.7        1201.38     
  923.150        25397.7        1201.49     
  923.150        25407.7        1201.59     
  923.150        25417.7        1201.70     
  923.150        25427.7        1201.81     
  923.150        25437.7        1201.91     
  923.150        25447.7        1202.02     
  923.150        25457.7        1202.13     
  923.150        25467.7        1202.23     
  923.150        25477.7        1202.34     
  923.150        25487.7        1202.45     
  923.150        25497.7        1202.55     
  923.150        25507.8        1202.66     
  923.150        25517.8        1202.77     
  923.150        25527.8        1202.87     
  923.150        25537.8        1202.98     
  923.150        25547.8        1203.08     
  923.150        25557.8        1203.19     
  923.150        25567.8        1203.30     
  923.150        25577.8        1203.40     
  923.150        25587.8        1203.51     
  923.150        25597.8        1203.62     
  923.150        25607.8        1203.72     
  923.150        25617.8        1203.83     
  923.150        25627.8        1203.93     
  923.150        25637.8        1204.04     
  923.150        25647.8        1204.15     
  923.150        25657.8        1204.25     
  923.150        25667.8        1204.36     
  923.150        25677.8        1204.46     
  923.150        25687.8        1204.57     
  923.150        25697.8        1204.67     
  923.150        25707.9        1204.78     
  923.150        25717.9        1204.89     
  923.150        25727.9        1204.99     
  923.150        25737.9        1205.10     
  923.150        25747.9        1205.20     
  923.150        25757.9        1205.31     
  923.150        25767.9        1205.41     
  923.150        25777.9        1205.52     
  923.150        25787.9        1205.62     
  923.150        25797.9        1205.73     
  923.150        25807.9        1205.84     
  923.150        25817.9        1205.94     
  923.150        25827.9        1206.05     
  923.150        25837.9        1206.15     
  923.150        25847.9        1206.26     
  923.150        25857.9        1206.36     
  923.150        25867.9        1206.47     
  923.150        25877.9        1206.57     
  923.150        25887.9        1206.68     
  923.150        25897.9        1206.78     
  923.150        25908.0        1206.89     
  923.150        25918.0        1206.99     
  923.150        25928.0        1207.10     
  923.150        25938.0        1207.20     
  923.150        25948.0        1207.31     
  923.150        25958.0        1207.41     
  923.150        25968.0        1207.52     
  923.150        25978.0        1207.62     
  923.150        25988.0        1207.73     
  923.150        25998.0        1207.83     
  923.150        26008.0        1207.94     
  923.150        26018.0        1208.04     
  923.150        26028.0        1208.15     
  923.150        26038.0        1208.25     
  923.150        26048.0        1208.35     
  923.150        26058.0        1208.46     
  923.150        26068.0        1208.56     
  923.150        26078.0        1208.67     
  923.150        26088.0        1208.77     
  923.150        26098.0        1208.88     
  923.150        26108.1        1208.98     
  923.150        26118.1        1209.09     
  923.150        26128.1        1209.19     
  923.150        26138.1        1209.29     
  923.150        26148.1        1209.40     
  923.150        26158.1        1209.50     
  923.150        26168.1        1209.61     
  923.150        26178.1        1209.71     
  923.150        26188.1        1209.81     
  923.150        26198.1        1209.92     
  923.150        26208.1        1210.02     
  923.150        26218.1        1210.13     
  923.150        26228.1        1210.23     
  923.150        26238.1        1210.33     
  923.150        26248.1        1210.44     
  923.150        26258.1        1210.54     
  923.150        26268.1        1210.65     
  923.150        26278.1        1210.75     
  923.150        26288.1        1210.85     
  923.150        26298.1        1210.96     
  923.150        26308.2        1211.06     
  923.150        26318.2        1211.16     
  923.150        26328.2        1211.27     
  923.150        26338.2        1211.37     
  923.150        26348.2        1211.48     
  923.150        26358.2        1211.58     
  923.150        26368.2        1211.68     
  923.150        26378.2        1211.79     
  923.150        26388.2        1211.89     
  923.150        26398.2        1211.99     
  923.150        26408.2        1212.10     
  923.150        26418.2        1212.20     
  923.150        26428.2        1212.30     
  923.150        26438.2        1212.41     
  923.150        26448.2        1212.51     
  923.150        26458.2        1212.61     
  923.150        26468.2        1212.71     
  923.150        26478.2        1212.82     
  923.150        26488.2        1212.92     
  923.150        26498.2        1213.02     
  923.150        26508.3        1213.13     
  923.150        26518.3        1213.23     
  923.150        26528.3        1213.33     
  923.150        26538.3        1213.44     
  923.150        26548.3        1213.54     
  923.150        26558.3        1213.64     
  923.150        26568.3        1213.74     
  923.150        26578.3        1213.85     
  923.150        26588.3        1213.95     
  923.150        26598.3        1214.05     
  923.150        26608.3        1214.16     
  923.150        26618.3        1214.26     
  923.150        26628.3        1214.36     
  923.150        26638.3        1214.46     
  923.150        26648.3        1214.57     
  923.150        26658.3        1214.67     
  923.150        26668.3        1214.77     
  923.150        26678.3        1214.87     
  923.150        26688.3        1214.98     
  923.150        26698.3        1215.08     
  923.150        26708.4        1215.18     
  923.150        26718.4        1215.28     
  923.150        26728.4        1215.39     
  923.150        26738.4        1215.49     
  923.150        26748.4        1215.59     
  923.150        26758.4        1215.69     
  923.150        26768.4        1215.79     
  923.150        26778.4        1215.90     
  923.150        26788.4        1216.00     
  923.150        26798.4        1216.10     
  923.150        26808.4        1216.20     
  923.150        26818.4        1216.30     
  923.150        26828.4        1216.41     
  923.150        26838.4        1216.51     
  923.150        26848.4        1216.61     
  923.150        26858.4        1216.71     
  923.150        26868.4        1216.81     
  923.150        26878.4        1216.92     
  923.150        26888.4        1217.02     
  923.150        26898.4        1217.12     
  923.150        26908.5        1217.22     
  923.150        26918.5        1217.32     
  923.150        26928.5        1217.42     
  923.150        26938.5        1217.53     
  923.150        26948.5        1217.63     
  923.150        26958.5        1217.73     
  923.150        26968.5        1217.83     
  923.150        26978.5        1217.93     
  923.150        26988.5        1218.03     
  923.150        26998.5        1218.14     
  923.150        27008.5        1218.24     
  923.150        27018.5        1218.34     
  923.150        27028.5        1218.44     
  923.150        27038.5        1218.54     
  923.150        27048.5        1218.64     
  923.150        27058.5        1218.74     
  923.150        27068.5        1218.84     
  923.150        27078.5        1218.95     
  923.150        27088.5        1219.05     
  923.150        27098.5        1219.15     
  923.150        27108.6        1219.25     
  923.150        27118.6        1219.35     
  923.150        27128.6        1219.45     
  923.150        27138.6        1219.55     
  923.150        27148.6        1219.65     
  923.150        27158.6        1219.75     
  923.150        27168.6        1219.85     
  923.150        27178.6        1219.96     
  923.150        27188.6        1220.06     
  923.150        27198.6        1220.16     
  923.150        27208.6        1220.26     
  923.150        27218.6        1220.36     
  923.150        27228.6        1220.46     
  923.150        27238.6        1220.56     
  923.150        27248.6        1220.66     
  923.150        27258.6        1220.76     
  923.150        27268.6        1220.86     
  923.150        27278.6        1220.96     
  923.150        27288.6        1221.06     
  923.150        27298.6        1221.16     
  923.150        27308.7        1221.26     
  923.150        27318.7        1221.36     
  923.150        27328.7        1221.47     
  923.150        27338.7        1221.57     
  923.150        27348.7        1221.67     
  923.150        27358.7        1221.77     
  923.150        27368.7        1221.87     
  923.150        27378.7        1221.97     
  923.150        27388.7        1222.07     
  923.150        27398.7        1222.17     
  923.150        27408.7        1222.27     
  923.150        27418.7        1222.37     
  923.150        27428.7        1222.47     
  923.150        27438.7        1222.57     
  923.150        27448.7        1222.67     
  923.150        27458.7        1222.77     
  923.150        27468.7        1222.87     
  923.150        27478.7        1222.97     
  923.150        27488.7        1223.07     
  923.150        27498.7        1223.17     
  923.150        27508.8        1223.27     
  923.150        27518.8        1223.37     
  923.150        27528.8        1223.47     
  923.150        27538.8        1223.57     
  923.150        27548.8        1223.67     
  923.150        27558.8        1223.77     
  923.150        27568.8        1223.87     
  923.150        27578.8        1223.97     
  923.150        27588.8        1224.06     
  923.150        27598.8        1224.16     
  923.150        27608.8        1224.26     
  923.150        27618.8        1224.36     
  923.150        27628.8        1224.46     
  923.150        27638.8        1224.56     
  923.150        27648.8        1224.66     
  923.150        27658.8        1224.76     
  923.150        27668.8        1224.86     
  923.150        27678.8        1224.96     
  923.150        27688.8        1225.06     
  923.150        27698.8        1225.16     
  923.150        27708.9        1225.26     
  923.150        27718.9        1225.36     
  923.150        27728.9        1225.46     
  923.150        27738.9        1225.56     
  923.150        27748.9        1225.65     
  923.150        27758.9        1225.75     
  923.150        27768.9        1225.85     
  923.150        27778.9        1225.95     
  923.150        27788.9        1226.05     
  923.150        27798.9        1226.15     
  923.150        27808.9        1226.25     
  923.150        27818.9        1226.35     
  923.150        27828.9        1226.45     
  923.150        27838.9        1226.55     
  923.150        27848.9        1226.64     
  923.150        27858.9        1226.74     
  923.150        27868.9        1226.84     
  923.150        27878.9        1226.94     
  923.150        27888.9        1227.04     
  923.150        27898.9        1227.14     
  923.150        27909.0        1227.24     
  923.150        27919.0        1227.34     
  923.150        27929.0        1227.43     
  923.150        27939.0        1227.53     
  923.150        27949.0        1227.63     
  923.150        27959.0        1227.73     
  923.150        27969.0        1227.83     
  923.150        27979.0        1227.93     
  923.150        27989.0        1228.02     
  923.150        27999.0        1228.12     
  923.150        28009.0        1228.22     
  923.150        28019.0        1228.32     
  923.150        28029.0        1228.42     
  923.150        28039.0        1228.52     
  923.150        28049.0        1228.61     
  923.150        28059.0        1228.71     
  923.150        28069.0        1228.81     
  923.150        28079.0        1228.91     
  923.150        28089.0        1229.01     
  923.150        28099.0        1229.11     
  923.150        28109.1        1229.20     
  923.150        28119.1        1229.30     
  923.150        28129.1        1229.40     
  923.150        28139.1        1229.50     
  923.150        28149.1        1229.60     
  923.150        28159.1        1229.69     
  923.150        28169.1        1229.79     
  923.150        28179.1        1229.89     
  923.150        28189.1        1229.99     
  923.150        28199.1        1230.08     
  923.150        28209.1        1230.18     
  923.150        28219.1        1230.28     
  923.150        28229.1        1230.38     
  923.150        28239.1        1230.48     
  923.150        28249.1        1230.57     
  923.150        28259.1        1230.67     
  923.150        28269.1        1230.77     
  923.150        28279.1        1230.87     
  923.150        28289.1        1230.96     
  923.150        28299.1        1231.06     
  923.150        28309.2        1231.16     
  923.150        28319.2        1231.26     
  923.150        28329.2        1231.35     
  923.150        28339.2        1231.45     
  923.150        28349.2        1231.55     
  923.150        28359.2        1231.65     
  923.150        28369.2        1231.74     
  923.150        28379.2        1231.84     
  923.150        28389.2        1231.94     
  923.150        28399.2        1232.04     
  923.150        28409.2        1232.13     
  923.150        28419.2        1232.23     
  923.150        28429.2        1232.33     
  923.150        28439.2        1232.42     
  923.150        28449.2        1232.52     
  923.150        28459.2        1232.62     
  923.150        28469.2        1232.71     
  923.150        28479.2        1232.81     
  923.150        28489.2        1232.91     
  923.150        28499.2        1233.01     
  923.150        28509.3        1233.10     
  923.150        28519.3        1233.20     
  923.150        28529.3        1233.30     
  923.150        28539.3        1233.39     
  923.150        28549.3        1233.49     
  923.150        28559.3        1233.59     
  923.150        28569.3        1233.68     
  923.150        28579.3        1233.78     
  923.150        28589.3        1233.88     
  923.150        28599.3        1233.97     
  923.150        28609.3        1234.07     
  923.150        28619.3        1234.17     
  923.150        28629.3        1234.26     
  923.150        28639.3        1234.36     
  923.150        28649.3        1234.46     
  923.150        28659.3        1234.55     
  923.150        28669.3        1234.65     
  923.150        28679.3        1234.75     
  923.150        28689.3        1234.84     
  923.150        28699.3        1234.94     
  923.150        28709.4        1235.04     
  923.150        28719.4        1235.13     
  923.150        28729.4        1235.23     
  923.150        28739.4        1235.32     
  923.150        28749.4        1235.42     
  923.150        28759.4        1235.52     
  923.150        28769.4        1235.61     
  923.150        28779.4        1235.71     
  923.150        28789.4        1235.81     
  923.150        28799.4        1235.90     
  923.150        28809.4        1236.00     
  923.150        28819.4        1236.09     
  923.150        28829.4        1236.19     
  923.150        28839.4        1236.29     
  923.150        28849.4        1236.38     
  923.150        28859.4        1236.48     
  923.150        28869.4        1236.57     
  923.150        28879.4        1236.67     
  923.150        28889.4        1236.76     
  923.150        28899.4        1236.86     
  923.150        28909.5        1236.96     
  923.150        28919.5        1237.05     
  923.150        28929.5        1237.15     
  923.150        28939.5        1237.24     
  923.150        28949.5        1237.34     
  923.150        28959.5        1237.44     
  923.150        28969.5        1237.53     
  923.150        28979.5        1237.63     
  923.150        28989.5        1237.72     
  923.150        28999.5        1237.82     
  923.150        29009.5        1237.91     
  923.150        29019.5        1238.01     
  923.150        29029.5        1238.10     
  923.150        29039.5        1238.20     
  923.150        29049.5        1238.29     
  923.150        29059.5        1238.39     
  923.150        29069.5        1238.49     
  923.150        29079.5        1238.58     
  923.150        29089.5        1238.68     
  923.150        29099.5        1238.77     
  923.150        29109.6        1238.87     
  923.150        29119.6        1238.96     
  923.150        29129.6        1239.06     
  923.150        29139.6        1239.15     
  923.150        29149.6        1239.25     
  923.150        29159.6        1239.34     
  923.150        29169.6        1239.44     
  923.150        29179.6        1239.53     
  923.150        29189.6        1239.63     
  923.150        29199.6        1239.72     
  923.150        29209.6        1239.82     
  923.150        29219.6        1239.91     
  923.150        29229.6        1240.01     
  923.150        29239.6        1240.10     
  923.150        29249.6        1240.20     
  923.150        29259.6        1240.29     
  923.150        29269.6        1240.39     
  923.150        29279.6        1240.48     
  923.150        29289.6        1240.58     
  923.150        29299.6        1240.67     
  923.150        29309.7        1240.77     
  923.150        29319.7        1240.86     
  923.150        29329.7        1240.96     
  923.150        29339.7        1241.05     
  923.150        29349.7        1241.15     
  923.150        29359.7        1241.24     
  923.150        29369.7        1241.33     
  923.150        29379.7        1241.43     
  923.150        29389.7        1241.52     
  923.150        29399.7        1241.62     
  923.150        29409.7        1241.71     
  923.150        29419.7        1241.81     
  923.150        29429.7        1241.90     
  923.150        29439.7        1242.00     
  923.150        29449.7        1242.09     
  923.150        29459.7        1242.18     
  923.150        29469.7        1242.28     
  923.150        29479.7        1242.37     
  923.150        29489.7        1242.47     
  923.150        29499.7        1242.56     
  923.150        29509.8        1242.66     
  923.150        29519.8        1242.75     
  923.150        29529.8        1242.84     
  923.150        29539.8        1242.94     
  923.150        29549.8        1243.03     
  923.150        29559.8        1243.13     
  923.150        29569.8        1243.22     
  923.150        29579.8        1243.31     
  923.150        29589.8        1243.41     
  923.150        29599.8        1243.50     
  923.150        29609.8        1243.60     
  923.150        29619.8        1243.69     
  923.150        29629.8        1243.78     
  923.150        29639.8        1243.88     
  923.150        29649.8        1243.97     
  923.150        29659.8        1244.06     
  923.150        29669.8        1244.16     
  923.150        29679.8        1244.25     
  923.150        29689.8        1244.35     
  923.150        29699.8        1244.44     
  923.150        29709.9        1244.53     
  923.150        29719.9        1244.63     
  923.150        29729.9        1244.72     
  923.150        29739.9        1244.81     
  923.150        29749.9        1244.91     
  923.150        29759.9        1245.00     
  923.150        29769.9        1245.09     
  923.150        29779.9        1245.19     
  923.150        29789.9        1245.28     
  923.150        29799.9        1245.38     
  923.150        29809.9        1245.47     
  923.150        29819.9        1245.56     
  923.150        29829.9        1245.66     
  923.150        29839.9        1245.75     
  923.150        29849.9        1245.84     
  923.150        29859.9        1245.94     
  923.150        29869.9        1246.03     
  923.150        29879.9        1246.12     
  923.150        29889.9        1246.22     
  923.150        29899.9        1246.31     
  923.150        29910.0        1246.40     
  923.150        29920.0        1246.49     
  923.150        29930.0        1246.59     
  923.150        29940.0        1246.68     
  923.150        29950.0        1246.77     
  923.150        29960.0        1246.87     
  923.150        29970.0        1246.96     
  923.150        29980.0        1247.05     
  923.150        29990.0        1247.15     
  923.150        30000.0        1247.24     
